#      z (A) rho (1e-6/A2) irho (1e-6/A2)
-10.00000000  20.07000030  -0.45799997
 -9.90000000  20.07000035  -0.45799996
 -9.80000000  20.07000042  -0.45799995
 -9.70000000  20.07000050  -0.45799995
 -9.60000000  20.07000059  -0.45799993
 -9.50000000  20.07000070  -0.45799992
 -9.40000000  20.07000082  -0.45799991
 -9.30000000  20.07000097  -0.45799989
 -9.20000000  20.07000115  -0.45799987
 -9.10000000  20.07000135  -0.45799985
 -9.00000000  20.07000160  -0.45799982
 -8.90000000  20.07000188  -0.45799979
 -8.80000000  20.07000221  -0.45799975
 -8.70000000  20.07000260  -0.45799971
 -8.60000000  20.07000305  -0.45799966
 -8.50000000  20.07000359  -0.45799960
 -8.40000000  20.07000420  -0.45799953
 -8.30000000  20.07000493  -0.45799945
 -8.20000000  20.07000577  -0.45799936
 -8.10000000  20.07000675  -0.45799925
 -8.00000000  20.07000789  -0.45799913
 -7.90000000  20.07000921  -0.45799898
 -7.80000000  20.07001074  -0.45799881
 -7.70000000  20.07001253  -0.45799861
 -7.60000000  20.07001459  -0.45799838
 -7.50000000  20.07001698  -0.45799812
 -7.40000000  20.07001975  -0.45799781
 -7.30000000  20.07002294  -0.45799745
 -7.20000000  20.07002663  -0.45799705
 -7.10000000  20.07003089  -0.45799657
 -7.00000000  20.07003579  -0.45799603
 -6.90000000  20.07004145  -0.45799540
 -6.80000000  20.07004795  -0.45799468
 -6.70000000  20.07005543  -0.45799385
 -6.60000000  20.07006401  -0.45799290
 -6.50000000  20.07007387  -0.45799180
 -6.40000000  20.07008517  -0.45799055
 -6.30000000  20.07009812  -0.45798911
 -6.20000000  20.07011294  -0.45798747
 -6.10000000  20.07012989  -0.45798559
 -6.00000000  20.07014926  -0.45798344
 -5.90000000  20.07017137  -0.45798099
 -5.80000000  20.07019659  -0.45797819
 -5.70000000  20.07022534  -0.45797500
 -5.60000000  20.07025806  -0.45797137
 -5.50000000  20.07029530  -0.45796724
 -5.40000000  20.07033761  -0.45796254
 -5.30000000  20.07038567  -0.45795721
 -5.20000000  20.07044020  -0.45795116
 -5.10000000  20.07050202  -0.45794430
 -5.00000000  20.07057203  -0.45793654
 -4.90000000  20.07065126  -0.45792775
 -4.80000000  20.07074085  -0.45791781
 -4.70000000  20.07084205  -0.45790658
 -4.60000000  20.07095627  -0.45789391
 -4.50000000  20.07108507  -0.45787962
 -4.40000000  20.07123019  -0.45786352
 -4.30000000  20.07139356  -0.45784539
 -4.20000000  20.07157729  -0.45782501
 -4.10000000  20.07178376  -0.45780210
 -4.00000000  20.07201557  -0.45777638
 -3.90000000  20.07227560  -0.45774753
 -3.80000000  20.07256703  -0.45771520
 -3.70000000  20.07289337  -0.45767899
 -3.60000000  20.07325848  -0.45763849
 -3.50000000  20.07366660  -0.45759321
 -3.40000000  20.07412240  -0.45754264
 -3.30000000  20.07463100  -0.45748621
 -3.20000000  20.07519803  -0.45742330
 -3.10000000  20.07582964  -0.45735323
 -3.00000000  20.07653256  -0.45727524
 -2.90000000  20.07731416  -0.45718853
 -2.80000000  20.07818249  -0.45709219
 -2.70000000  20.07914631  -0.45698526
 -2.60000000  20.08021520  -0.45686667
 -2.50000000  20.08139957  -0.45673527
 -2.40000000  20.08271073  -0.45658981
 -2.30000000  20.08416098  -0.45642891
 -2.20000000  20.08576369  -0.45625109
 -2.10000000  20.08753330  -0.45605476
 -2.00000000  20.08948549  -0.45583818
 -1.90000000  20.09163721  -0.45559946
 -1.80000000  20.09400677  -0.45533656
 -1.70000000  20.09661392  -0.45504731
 -1.60000000  20.09947997  -0.45472934
 -1.50000000  20.10262786  -0.45438010
 -1.40000000  20.10608228  -0.45399684
 -1.30000000  20.10986974  -0.45357664
 -1.20000000  20.11401870  -0.45311634
 -1.10000000  20.11855967  -0.45261254
 -1.00000000  20.12352533  -0.45206162
 -0.90000000  20.12895064  -0.45145971
 -0.80000000  20.13487291  -0.45080266
 -0.70000000  20.14133201  -0.45008606
 -0.60000000  20.14837042  -0.44930517
 -0.50000000  20.15603456  -0.44845372
 -0.40000000  20.16445598  -0.44743881
 -0.30000000  20.17604644  -0.44377806
 -0.20000000  20.21752470  -0.40949049
 -0.10000000  20.39749222  -0.23069137
 -0.00000000  20.79976976   0.18050236
  0.10000000  21.20300753   0.59180262
  0.20000000  21.38585929   0.77092173
  0.30000000  21.43215655   0.80574395
  0.40000000  21.45051859   0.81015597
  0.50000000  21.46768915   0.81214156
  0.60000000  21.48611201   0.81418664
  0.70000000  21.50595784   0.81638845
  0.80000000  21.52731916   0.81875838
  0.90000000  21.55029151   0.82130705
  1.00000000  21.57497471   0.82404554
  1.10000000  21.60147287   0.82698538
  1.20000000  21.62989446   0.83013862
  1.30000000  21.66035231   0.83351777
  1.40000000  21.69296366   0.83713584
  1.50000000  21.72785009   0.84100632
  1.60000000  21.76513754   0.84514319
  1.70000000  21.80495626   0.84956088
  1.80000000  21.84744072   0.85427433
  1.90000000  21.89272960   0.85929891
  2.00000000  21.94096559   0.86465046
  2.10000000  21.99229536   0.87034525
  2.20000000  22.04686936   0.87639998
  2.30000000  22.10484168   0.88283173
  2.40000000  22.16636984   0.88965798
  2.50000000  22.23161459   0.89689657
  2.60000000  22.30073965   0.90456566
  2.70000000  22.37391149   0.91268373
  2.80000000  22.45129898   0.92126950
  2.90000000  22.53307311   0.93034194
  3.00000000  22.61940664   0.93992023
  3.10000000  22.71047372   0.95002369
  3.20000000  22.80644953   0.96067174
  3.30000000  22.90750980   0.97188389
  3.40000000  23.01383043   0.98367965
  3.50000000  23.12558700   0.99607851
  3.60000000  23.24295424   1.00909984
  3.70000000  23.36610558   1.02276289
  3.80000000  23.49521258   1.03708669
  3.90000000  23.63044437   1.05209000
  4.00000000  23.77196710   1.06779127
  4.10000000  23.91994335   1.08420852
  4.20000000  24.07453148   1.10135933
  4.30000000  24.23588511   1.11926074
  4.40000000  24.40415238   1.13792918
  4.50000000  24.57947542   1.15738043
  4.60000000  24.76198964   1.17762950
  4.70000000  24.95182311   1.19869061
  4.80000000  25.14909594   1.22057709
  4.90000000  25.35391961   1.24330129
  5.00000000  25.56639635   1.26687456
  5.10000000  25.78661851   1.29130715
  5.20000000  26.01466797   1.31660814
  5.30000000  26.25061550   1.34278538
  5.40000000  26.49452024   1.36984543
  5.50000000  26.74642907   1.39779351
  5.60000000  27.00637616   1.42663339
  5.70000000  27.27438240   1.45636739
  5.80000000  27.55045495   1.48699631
  5.90000000  27.83458681   1.51851937
  6.00000000  28.12675641   1.55093418
  6.10000000  28.42692726   1.58423669
  6.20000000  28.73504761   1.61842116
  6.30000000  29.05105018   1.65348013
  6.40000000  29.37485198   1.68940438
  6.50000000  29.70635408   1.72618294
  6.60000000  30.04544150   1.76380306
  6.70000000  30.39198317   1.80225019
  6.80000000  30.74583190   1.84150800
  6.90000000  31.10682441   1.88155839
  7.00000000  31.47478147   1.92238145
  7.10000000  31.84950802   1.96395556
  7.20000000  32.23079342   2.00625734
  7.30000000  32.61841171   2.04926172
  7.40000000  33.01212199   2.09294198
  7.50000000  33.41166875   2.13726977
  7.60000000  33.81678238   2.18221518
  7.70000000  34.22717968   2.22774678
  7.80000000  34.64256440   2.27383172
  7.90000000  35.06262787   2.32043574
  8.00000000  35.48704969   2.36752330
  8.10000000  35.91549844   2.41505762
  8.20000000  36.34763243   2.46300081
  8.30000000  36.78310056   2.51131390
  8.40000000  37.22154311   2.55995700
  8.50000000  37.66259269   2.60888932
  8.60000000  38.10587511   2.65806937
  8.70000000  38.55101036   2.70745499
  8.80000000  38.99761358   2.75700347
  8.90000000  39.44529606   2.80667168
  9.00000000  39.89366625   2.85641620
  9.10000000  40.34233079   2.90619337
  9.20000000  40.79089555   2.95595947
  9.30000000  41.23896666   3.00567080
  9.40000000  41.68615154   3.05528381
  9.50000000  42.13205996   3.10475521
  9.60000000  42.57630503   3.15404206
  9.70000000  43.01850421   3.20310193
  9.80000000  43.45828033   3.25189297
  9.90000000  43.89526253   3.30037405
 10.00000000  44.32908718   3.34850480
 10.10000000  44.75939881   3.39624581
 10.20000000  45.18585099   3.44355862
 10.30000000  45.60810713   3.49040591
 10.40000000  46.02584128   3.53675150
 10.50000000  46.43873892   3.58256051
 10.60000000  46.84649756   3.62779937
 10.70000000  47.24882750   3.67243594
 10.80000000  47.64545234   3.71643956
 10.90000000  48.03610955   3.75978109
 11.00000000  48.42055098   3.80243302
 11.10000000  48.79854322   3.84436944
 11.20000000  49.16986804   3.88556614
 11.30000000  49.53432266   3.92600063
 11.40000000  49.89172001   3.96565214
 11.50000000  50.24188891   4.00450170
 11.60000000  50.58467422   4.04253208
 11.70000000  50.91993692   4.07972786
 11.80000000  51.24755407   4.11607541
 11.90000000  51.56741884   4.15156286
 12.00000000  51.87944039   4.18618015
 12.10000000  52.18354370   4.21991895
 12.20000000  52.47966939   4.25277267
 12.30000000  52.76777348   4.28473643
 12.40000000  53.04782705   4.31580703
 12.50000000  53.31981598   4.34598289
 12.60000000  53.58374047   4.37526404
 12.70000000  53.83961471   4.40365206
 12.80000000  54.08746636   4.43115001
 12.90000000  54.32733609   4.45776240
 13.00000000  54.55927706   4.48349513
 13.10000000  54.78335436   4.50835543
 13.20000000  54.99964447   4.53235178
 13.30000000  55.20823463   4.55549385
 13.40000000  55.40922229   4.57779247
 13.50000000  55.60271443   4.59925949
 13.60000000  55.78882697   4.61990778
 13.70000000  55.96768415   4.63975112
 13.80000000  56.13941782   4.65880414
 13.90000000  56.30416688   4.67708226
 14.00000000  56.46207658   4.69460158
 14.10000000  56.61329790   4.71137886
 14.20000000  56.75798696   4.72743141
 14.30000000  56.89630433   4.74277706
 14.40000000  57.02841445   4.75743404
 14.50000000  57.15448507   4.77142097
 14.60000000  57.27468662   4.78475675
 14.70000000  57.38919167   4.79746054
 14.80000000  57.49817437   4.80955164
 14.90000000  57.60180995   4.82104951
 15.00000000  57.70027421   4.83197365
 15.10000000  57.79374301   4.84234356
 15.20000000  57.88239188   4.85217873
 15.30000000  57.96639550   4.86149853
 15.40000000  58.04592739   4.87032221
 15.50000000  58.12115945   4.87866884
 15.60000000  58.19226163   4.88655729
 15.70000000  58.25940163   4.89400615
 15.80000000  58.32274456   4.90103374
 15.90000000  58.38245267   4.90765807
 16.00000000  58.43868510   4.91389678
 16.10000000  58.49159766   4.91976718
 16.20000000  58.54134263   4.92528614
 16.30000000  58.58806854   4.93047016
 16.40000000  58.63192009   4.93533528
 16.50000000  58.67303795   4.93989710
 16.60000000  58.71155865   4.94417079
 16.70000000  58.74761457   4.94817102
 16.80000000  58.78133376   4.95191200
 16.90000000  58.81283997   4.95540747
 17.00000000  58.84225259   4.95867065
 17.10000000  58.86968660   4.96171433
 17.20000000  58.89525264   4.96455076
 17.30000000  58.91905698   4.96719173
 17.40000000  58.94120154   4.96964856
 17.50000000  58.96178396   4.97193208
 17.60000000  58.98089763   4.97405265
 17.70000000  58.99863177   4.97602017
 17.80000000  59.01507150   4.97784408
 17.90000000  59.03029791   4.97953338
 18.00000000  59.04438816   4.98109662
 18.10000000  59.05741558   4.98254195
 18.20000000  59.06944976   4.98387709
 18.30000000  59.08055666   4.98510934
 18.40000000  59.09079872   4.98624565
 18.50000000  59.10023500   4.98729256
 18.60000000  59.10892125   4.98825626
 18.70000000  59.11691007   4.98914258
 18.80000000  59.12425099   4.98995702
 18.90000000  59.13099064   4.99070475
 19.00000000  59.13717283   4.99139064
 19.10000000  59.14283869   4.99201924
 19.20000000  59.14802678   4.99259483
 19.30000000  59.15277322   4.99312142
 19.40000000  59.15711179   4.99360277
 19.50000000  59.16107406   4.99404236
 19.60000000  59.16468948   4.99444348
 19.70000000  59.16798552   4.99480916
 19.80000000  59.17098776   4.99514224
 19.90000000  59.17371998   4.99544537
 20.00000000  59.17620428   4.99572099
 20.10000000  59.17846118   4.99597138
 20.20000000  59.18050969   4.99619865
 20.30000000  59.18236741   4.99640476
 20.40000000  59.18405065   4.99659150
 20.50000000  59.18557444   4.99676056
 20.60000000  59.18695268   4.99691347
 20.70000000  59.18819817   4.99705165
 20.80000000  59.18932272   4.99717641
 20.90000000  59.19033717   4.99728896
 21.00000000  59.19125151   4.99739040
 21.10000000  59.19207488   4.99748175
 21.20000000  59.19281569   4.99756394
 21.30000000  59.19348162   4.99763783
 21.40000000  59.19407973   4.99770418
 21.50000000  59.19461645   4.99776373
 21.60000000  59.19509765   4.99781712
 21.70000000  59.19552870   4.99786494
 21.80000000  59.19591449   4.99790774
 21.90000000  59.19625947   4.99794601
 22.00000000  59.19656767   4.99798021
 22.10000000  59.19684279   4.99801073
 22.20000000  59.19708816   4.99803795
 22.30000000  59.19730680   4.99806221
 22.40000000  59.19750145   4.99808381
 22.50000000  59.19767459   4.99810301
 22.60000000  59.19782846   4.99812009
 22.70000000  59.19796510   4.99813524
 22.80000000  59.19808631   4.99814869
 22.90000000  59.19819376   4.99816061
 23.00000000  59.19828891   4.99817117
 23.10000000  59.19837310   4.99818051
 23.20000000  59.19844753   4.99818877
 23.30000000  59.19851328   4.99819606
 23.40000000  59.19857130   4.99820250
 23.50000000  59.19862245   4.99820818
 23.60000000  59.19866752   4.99821318
 23.70000000  59.19870718   4.99821758
 23.80000000  59.19874207   4.99822145
 23.90000000  59.19877272   4.99822485
 24.00000000  59.19879962   4.99822783
 24.10000000  59.19882322   4.99823045
 24.20000000  59.19884390   4.99823274
 24.30000000  59.19886201   4.99823475
 24.40000000  59.19887784   4.99823651
 24.50000000  59.19889169   4.99823805
 24.60000000  59.19890378   4.99823939
 24.70000000  59.19891432   4.99824056
 24.80000000  59.19892352   4.99824158
 24.90000000  59.19893152   4.99824247
 25.00000000  59.19893849   4.99824324
 25.10000000  59.19894455   4.99824391
 25.20000000  59.19894981   4.99824449
 25.30000000  59.19895438   4.99824500
 25.40000000  59.19895834   4.99824544
 25.50000000  59.19896177   4.99824582
 25.60000000  59.19896474   4.99824615
 25.70000000  59.19896731   4.99824644
 25.80000000  59.19896953   4.99824668
 25.90000000  59.19897144   4.99824689
 26.00000000  59.19897310   4.99824708
 26.10000000  59.19897452   4.99824724
 26.20000000  59.19897575   4.99824737
 26.30000000  59.19897680   4.99824749
 26.40000000  59.19897771   4.99824759
 26.50000000  59.19897849   4.99824768
 26.60000000  59.19897915   4.99824775
 26.70000000  59.19897973   4.99824781
 26.80000000  59.19898022   4.99824787
 26.90000000  59.19898064   4.99824791
 27.00000000  59.19898100   4.99824795
 27.10000000  59.19898130   4.99824799
 27.20000000  59.19898157   4.99824802
 27.30000000  59.19898179   4.99824804
 27.40000000  59.19898198   4.99824806
 27.50000000  59.19898214   4.99824808
 27.60000000  59.19898228   4.99824810
 27.70000000  59.19898240   4.99824811
 27.80000000  59.19898249   4.99824812
 27.90000000  59.19898258   4.99824813
 28.00000000  59.19898265   4.99824814
 28.10000000  59.19898271   4.99824814
 28.20000000  59.19898276   4.99824815
 28.30000000  59.19898281   4.99824815
 28.40000000  59.19898284   4.99824816
 28.50000000  59.19898287   4.99824816
 28.60000000  59.19898290   4.99824817
 28.70000000  59.19898292   4.99824817
 28.80000000  59.19898294   4.99824817
 28.90000000  59.19898295   4.99824817
 29.00000000  59.19898297   4.99824817
 29.10000000  59.19898298   4.99824817
 29.20000000  59.19898299   4.99824818
 29.30000000  59.19898300   4.99824818
 29.40000000  59.19898300   4.99824818
 29.50000000  59.19898301   4.99824818
 29.60000000  59.19898301   4.99824818
 29.70000000  59.19898302   4.99824818
 29.80000000  59.19898302   4.99824818
 29.90000000  59.19898302   4.99824818
 30.00000000  59.19898302   4.99824818
 30.10000000  59.19898303   4.99824818
 30.20000000  59.19898303   4.99824818
 30.30000000  59.19898303   4.99824818
 30.40000000  59.19898303   4.99824818
 30.50000000  59.19898303   4.99824818
 30.60000000  59.19898303   4.99824818
 30.70000000  59.19898303   4.99824818
 30.80000000  59.19898303   4.99824818
 30.90000000  59.19898303   4.99824818
 31.00000000  59.19898303   4.99824818
 31.10000000  59.19898303   4.99824818
 31.20000000  59.19898303   4.99824818
 31.30000000  59.19898303   4.99824818
 31.40000000  59.19898303   4.99824818
 31.50000000  59.19898303   4.99824818
 31.60000000  59.19898303   4.99824818
 31.70000000  59.19898303   4.99824818
 31.80000000  59.19898303   4.99824818
 31.90000000  59.19898303   4.99824818
 32.00000000  59.19898303   4.99824818
 32.10000000  59.19898303   4.99824818
 32.20000000  59.19898303   4.99824818
 32.30000000  59.19898303   4.99824818
 32.40000000  59.19898303   4.99824818
 32.50000000  59.19898303   4.99824818
 32.60000000  59.19898303   4.99824818
 32.70000000  59.19898303   4.99824818
 32.80000000  59.19898303   4.99824818
 32.90000000  59.19898303   4.99824818
 33.00000000  59.19898303   4.99824818
 33.10000000  59.19898303   4.99824818
 33.20000000  59.19898303   4.99824818
 33.30000000  59.19898303   4.99824818
 33.40000000  59.19898303   4.99824818
 33.50000000  59.19898303   4.99824818
 33.60000000  59.19898303   4.99824818
 33.70000000  59.19898303   4.99824818
 33.80000000  59.19898303   4.99824818
 33.90000000  59.19898303   4.99824818
 34.00000000  59.19898303   4.99824818
 34.10000000  59.19898303   4.99824818
 34.20000000  59.19898303   4.99824818
 34.30000000  59.19898303   4.99824818
 34.40000000  59.19898303   4.99824818
 34.50000000  59.19898303   4.99824818
 34.60000000  59.19898303   4.99824818
 34.70000000  59.19898303   4.99824818
 34.80000000  59.19898303   4.99824818
 34.90000000  59.19898303   4.99824818
 35.00000000  59.19898303   4.99824818
 35.10000000  59.19898303   4.99824818
 35.20000000  59.19898303   4.99824818
 35.30000000  59.19898303   4.99824818
 35.40000000  59.19898303   4.99824818
 35.50000000  59.19898303   4.99824818
 35.60000000  59.19898303   4.99824818
 35.70000000  59.19898303   4.99824818
 35.80000000  59.19898303   4.99824818
 35.90000000  59.19898303   4.99824818
 36.00000000  59.19898303   4.99824818
 36.10000000  59.19898303   4.99824818
 36.20000000  59.19898303   4.99824818
 36.30000000  59.19898303   4.99824818
 36.40000000  59.19898303   4.99824818
 36.50000000  59.19898303   4.99824818
 36.60000000  59.19898303   4.99824818
 36.70000000  59.19898303   4.99824818
 36.80000000  59.19898303   4.99824818
 36.90000000  59.19898303   4.99824818
 37.00000000  59.19898303   4.99824818
 37.10000000  59.19898303   4.99824818
 37.20000000  59.19898303   4.99824818
 37.30000000  59.19898303   4.99824818
 37.40000000  59.19898303   4.99824818
 37.50000000  59.19898303   4.99824818
 37.60000000  59.19898303   4.99824818
 37.70000000  59.19898303   4.99824818
 37.80000000  59.19898303   4.99824818
 37.90000000  59.19898303   4.99824818
 38.00000000  59.19898303   4.99824818
 38.10000000  59.19898303   4.99824818
 38.20000000  59.19898303   4.99824818
 38.30000000  59.19898303   4.99824818
 38.40000000  59.19898303   4.99824818
 38.50000000  59.19898303   4.99824818
 38.60000000  59.19898303   4.99824818
 38.70000000  59.19898303   4.99824818
 38.80000000  59.19898303   4.99824818
 38.90000000  59.19898303   4.99824818
 39.00000000  59.19898303   4.99824818
 39.10000000  59.19898303   4.99824818
 39.20000000  59.19898303   4.99824818
 39.30000000  59.19898303   4.99824818
 39.40000000  59.19898303   4.99824818
 39.50000000  59.19898303   4.99824818
 39.60000000  59.19898303   4.99824818
 39.70000000  59.19898303   4.99824818
 39.80000000  59.19898303   4.99824818
 39.90000000  59.19898303   4.99824818
 40.00000000  59.19898303   4.99824818
 40.10000000  59.19898303   4.99824818
 40.20000000  59.19898303   4.99824818
 40.30000000  59.19898303   4.99824818
 40.40000000  59.19898303   4.99824818
 40.50000000  59.19898303   4.99824818
 40.60000000  59.19898303   4.99824818
 40.70000000  59.19898303   4.99824818
 40.80000000  59.19898303   4.99824818
 40.90000000  59.19898303   4.99824818
 41.00000000  59.19898303   4.99824818
 41.10000000  59.19898303   4.99824818
 41.20000000  59.19898303   4.99824818
 41.30000000  59.19898303   4.99824818
 41.40000000  59.19898303   4.99824818
 41.50000000  59.19898303   4.99824818
 41.60000000  59.19898303   4.99824818
 41.70000000  59.19898303   4.99824818
 41.80000000  59.19898303   4.99824818
 41.90000000  59.19898303   4.99824818
 42.00000000  59.19898303   4.99824818
 42.10000000  59.19898303   4.99824818
 42.20000000  59.19898303   4.99824818
 42.30000000  59.19898303   4.99824818
 42.40000000  59.19898303   4.99824818
 42.50000000  59.19898303   4.99824818
 42.60000000  59.19898303   4.99824818
 42.70000000  59.19898303   4.99824818
 42.80000000  59.19898303   4.99824818
 42.90000000  59.19898303   4.99824818
 43.00000000  59.19898303   4.99824818
 43.10000000  59.19898303   4.99824818
 43.20000000  59.19898303   4.99824818
 43.30000000  59.19898303   4.99824818
 43.40000000  59.19898303   4.99824818
 43.50000000  59.19898303   4.99824818
 43.60000000  59.19898303   4.99824818
 43.70000000  59.19898303   4.99824818
 43.80000000  59.19898303   4.99824818
 43.90000000  59.19898303   4.99824818
 44.00000000  59.19898303   4.99824818
 44.10000000  59.19898303   4.99824818
 44.20000000  59.19898303   4.99824818
 44.30000000  59.19898303   4.99824818
 44.40000000  59.19898303   4.99824818
 44.50000000  59.19898303   4.99824818
 44.60000000  59.19898303   4.99824818
 44.70000000  59.19898303   4.99824818
 44.80000000  59.19898303   4.99824818
 44.90000000  59.19898303   4.99824818
 45.00000000  59.19898303   4.99824818
 45.10000000  59.19898303   4.99824818
 45.20000000  59.19898303   4.99824818
 45.30000000  59.19898303   4.99824818
 45.40000000  59.19898303   4.99824818
 45.50000000  59.19898303   4.99824818
 45.60000000  59.19898303   4.99824818
 45.70000000  59.19898303   4.99824818
 45.80000000  59.19898303   4.99824818
 45.90000000  59.19898303   4.99824818
 46.00000000  59.19898303   4.99824818
 46.10000000  59.19898303   4.99824818
 46.20000000  59.19898303   4.99824818
 46.30000000  59.19898303   4.99824818
 46.40000000  59.19898303   4.99824818
 46.50000000  59.19898303   4.99824818
 46.60000000  59.19898303   4.99824818
 46.70000000  59.19898303   4.99824818
 46.80000000  59.19898303   4.99824818
 46.90000000  59.19898303   4.99824818
 47.00000000  59.19898303   4.99824818
 47.10000000  59.19898303   4.99824818
 47.20000000  59.19898303   4.99824818
 47.30000000  59.19898303   4.99824818
 47.40000000  59.19898303   4.99824818
 47.50000000  59.19898303   4.99824818
 47.60000000  59.19898303   4.99824818
 47.70000000  59.19898303   4.99824818
 47.80000000  59.19898303   4.99824818
 47.90000000  59.19898303   4.99824818
 48.00000000  59.19898303   4.99824818
 48.10000000  59.19898303   4.99824818
 48.20000000  59.19898303   4.99824818
 48.30000000  59.19898303   4.99824818
 48.40000000  59.19898303   4.99824818
 48.50000000  59.19898303   4.99824818
 48.60000000  59.19898303   4.99824818
 48.70000000  59.19898303   4.99824818
 48.80000000  59.19898303   4.99824818
 48.90000000  59.19898303   4.99824818
 49.00000000  59.19898303   4.99824818
 49.10000000  59.19898303   4.99824818
 49.20000000  59.19898303   4.99824818
 49.30000000  59.19898303   4.99824818
 49.40000000  59.19898303   4.99824818
 49.50000000  59.19898303   4.99824818
 49.60000000  59.19898303   4.99824818
 49.70000000  59.19898303   4.99824818
 49.80000000  59.19898303   4.99824818
 49.90000000  59.19898303   4.99824818
 50.00000000  59.19898303   4.99824818
 50.10000000  59.19898303   4.99824818
 50.20000000  59.19898303   4.99824818
 50.30000000  59.19898303   4.99824818
 50.40000000  59.19898303   4.99824818
 50.50000000  59.19898303   4.99824818
 50.60000000  59.19898303   4.99824818
 50.70000000  59.19898303   4.99824818
 50.80000000  59.19898303   4.99824818
 50.90000000  59.19898303   4.99824818
 51.00000000  59.19898303   4.99824818
 51.10000000  59.19898303   4.99824818
 51.20000000  59.19898303   4.99824818
 51.30000000  59.19898303   4.99824818
 51.40000000  59.19898303   4.99824818
 51.50000000  59.19898303   4.99824818
 51.60000000  59.19898303   4.99824818
 51.70000000  59.19898303   4.99824818
 51.80000000  59.19898303   4.99824818
 51.90000000  59.19898303   4.99824818
 52.00000000  59.19898303   4.99824818
 52.10000000  59.19898303   4.99824818
 52.20000000  59.19898303   4.99824818
 52.30000000  59.19898303   4.99824818
 52.40000000  59.19898303   4.99824818
 52.50000000  59.19898303   4.99824818
 52.60000000  59.19898303   4.99824818
 52.70000000  59.19898303   4.99824818
 52.80000000  59.19898303   4.99824818
 52.90000000  59.19898303   4.99824818
 53.00000000  59.19898303   4.99824818
 53.10000000  59.19898303   4.99824818
 53.20000000  59.19898303   4.99824818
 53.30000000  59.19898303   4.99824818
 53.40000000  59.19898303   4.99824818
 53.50000000  59.19898303   4.99824818
 53.60000000  59.19898303   4.99824818
 53.70000000  59.19898303   4.99824818
 53.80000000  59.19898303   4.99824818
 53.90000000  59.19898303   4.99824818
 54.00000000  59.19898303   4.99824818
 54.10000000  59.19898303   4.99824818
 54.20000000  59.19898303   4.99824818
 54.30000000  59.19898303   4.99824818
 54.40000000  59.19898303   4.99824818
 54.50000000  59.19898303   4.99824818
 54.60000000  59.19898303   4.99824818
 54.70000000  59.19898303   4.99824818
 54.80000000  59.19898303   4.99824818
 54.90000000  59.19898303   4.99824818
 55.00000000  59.19898303   4.99824818
 55.10000000  59.19898303   4.99824818
 55.20000000  59.19898303   4.99824818
 55.30000000  59.19898303   4.99824818
 55.40000000  59.19898303   4.99824818
 55.50000000  59.19898303   4.99824818
 55.60000000  59.19898303   4.99824818
 55.70000000  59.19898303   4.99824818
 55.80000000  59.19898303   4.99824818
 55.90000000  59.19898303   4.99824818
 56.00000000  59.19898303   4.99824818
 56.10000000  59.19898303   4.99824818
 56.20000000  59.19898303   4.99824818
 56.30000000  59.19898303   4.99824818
 56.40000000  59.19898303   4.99824818
 56.50000000  59.19898303   4.99824818
 56.60000000  59.19898303   4.99824818
 56.70000000  59.19898303   4.99824818
 56.80000000  59.19898303   4.99824818
 56.90000000  59.19898303   4.99824818
 57.00000000  59.19898303   4.99824818
 57.10000000  59.19898303   4.99824818
 57.20000000  59.19898303   4.99824818
 57.30000000  59.19898303   4.99824818
 57.40000000  59.19898303   4.99824818
 57.50000000  59.19898303   4.99824818
 57.60000000  59.19898303   4.99824818
 57.70000000  59.19898303   4.99824818
 57.80000000  59.19898303   4.99824818
 57.90000000  59.19898303   4.99824818
 58.00000000  59.19898303   4.99824818
 58.10000000  59.19898303   4.99824818
 58.20000000  59.19898303   4.99824818
 58.30000000  59.19898303   4.99824818
 58.40000000  59.19898303   4.99824818
 58.50000000  59.19898303   4.99824818
 58.60000000  59.19898303   4.99824818
 58.70000000  59.19898303   4.99824818
 58.80000000  59.19898303   4.99824818
 58.90000000  59.19898303   4.99824818
 59.00000000  59.19898303   4.99824818
 59.10000000  59.19898303   4.99824818
 59.20000000  59.19898303   4.99824818
 59.30000000  59.19898303   4.99824818
 59.40000000  59.19898303   4.99824818
 59.50000000  59.19898303   4.99824818
 59.60000000  59.19898303   4.99824818
 59.70000000  59.19898303   4.99824818
 59.80000000  59.19898303   4.99824818
 59.90000000  59.19898303   4.99824818
 60.00000000  59.19898303   4.99824818
 60.10000000  59.19898303   4.99824818
 60.20000000  59.19898303   4.99824818
 60.30000000  59.19898303   4.99824818
 60.40000000  59.19898303   4.99824818
 60.50000000  59.19898303   4.99824818
 60.60000000  59.19898303   4.99824818
 60.70000000  59.19898303   4.99824818
 60.80000000  59.19898303   4.99824818
 60.90000000  59.19898303   4.99824818
 61.00000000  59.19898303   4.99824818
 61.10000000  59.19898303   4.99824818
 61.20000000  59.19898303   4.99824818
 61.30000000  59.19898303   4.99824818
 61.40000000  59.19898303   4.99824818
 61.50000000  59.19898303   4.99824818
 61.60000000  59.19898303   4.99824818
 61.70000000  59.19898303   4.99824818
 61.80000000  59.19898303   4.99824818
 61.90000000  59.19898303   4.99824818
 62.00000000  59.19898303   4.99824818
 62.10000000  59.19898303   4.99824818
 62.20000000  59.19898303   4.99824818
 62.30000000  59.19898303   4.99824818
 62.40000000  59.19898303   4.99824818
 62.50000000  59.19898303   4.99824818
 62.60000000  59.19898303   4.99824818
 62.70000000  59.19898303   4.99824818
 62.80000000  59.19898303   4.99824818
 62.90000000  59.19898303   4.99824818
 63.00000000  59.19898303   4.99824818
 63.10000000  59.19898303   4.99824818
 63.20000000  59.19898303   4.99824818
 63.30000000  59.19898303   4.99824818
 63.40000000  59.19898303   4.99824818
 63.50000000  59.19898303   4.99824818
 63.60000000  59.19898303   4.99824818
 63.70000000  59.19898303   4.99824818
 63.80000000  59.19898303   4.99824818
 63.90000000  59.19898303   4.99824818
 64.00000000  59.19898303   4.99824818
 64.10000000  59.19898303   4.99824818
 64.20000000  59.19898303   4.99824818
 64.30000000  59.19898303   4.99824818
 64.40000000  59.19898303   4.99824818
 64.50000000  59.19898303   4.99824818
 64.60000000  59.19898303   4.99824818
 64.70000000  59.19898303   4.99824818
 64.80000000  59.19898303   4.99824818
 64.90000000  59.19898303   4.99824818
 65.00000000  59.19898303   4.99824818
 65.10000000  59.19898303   4.99824818
 65.20000000  59.19898303   4.99824818
 65.30000000  59.19898303   4.99824818
 65.40000000  59.19898303   4.99824818
 65.50000000  59.19898303   4.99824818
 65.60000000  59.19898303   4.99824818
 65.70000000  59.19898303   4.99824818
 65.80000000  59.19898303   4.99824818
 65.90000000  59.19898303   4.99824818
 66.00000000  59.19898303   4.99824818
 66.10000000  59.19898303   4.99824818
 66.20000000  59.19898303   4.99824818
 66.30000000  59.19898303   4.99824818
 66.40000000  59.19898303   4.99824818
 66.50000000  59.19898303   4.99824818
 66.60000000  59.19898303   4.99824818
 66.70000000  59.19898303   4.99824818
 66.80000000  59.19898303   4.99824818
 66.90000000  59.19898303   4.99824818
 67.00000000  59.19898303   4.99824818
 67.10000000  59.19898303   4.99824818
 67.20000000  59.19898303   4.99824818
 67.30000000  59.19898303   4.99824818
 67.40000000  59.19898303   4.99824818
 67.50000000  59.19898303   4.99824818
 67.60000000  59.19898303   4.99824818
 67.70000000  59.19898303   4.99824818
 67.80000000  59.19898303   4.99824818
 67.90000000  59.19898303   4.99824818
 68.00000000  59.19898303   4.99824818
 68.10000000  59.19898303   4.99824818
 68.20000000  59.19898303   4.99824818
 68.30000000  59.19898303   4.99824818
 68.40000000  59.19898303   4.99824818
 68.50000000  59.19898303   4.99824818
 68.60000000  59.19898303   4.99824818
 68.70000000  59.19898303   4.99824818
 68.80000000  59.19898303   4.99824818
 68.90000000  59.19898303   4.99824818
 69.00000000  59.19898303   4.99824818
 69.10000000  59.19898303   4.99824818
 69.20000000  59.19898303   4.99824818
 69.30000000  59.19898303   4.99824818
 69.40000000  59.19898303   4.99824818
 69.50000000  59.19898303   4.99824818
 69.60000000  59.19898303   4.99824818
 69.70000000  59.19898303   4.99824818
 69.80000000  59.19898303   4.99824818
 69.90000000  59.19898303   4.99824818
 70.00000000  59.19898303   4.99824818
 70.10000000  59.19898303   4.99824818
 70.20000000  59.19898303   4.99824818
 70.30000000  59.19898303   4.99824818
 70.40000000  59.19898303   4.99824818
 70.50000000  59.19898303   4.99824818
 70.60000000  59.19898303   4.99824818
 70.70000000  59.19898303   4.99824818
 70.80000000  59.19898303   4.99824818
 70.90000000  59.19898303   4.99824818
 71.00000000  59.19898303   4.99824818
 71.10000000  59.19898303   4.99824818
 71.20000000  59.19898303   4.99824818
 71.30000000  59.19898303   4.99824818
 71.40000000  59.19898303   4.99824818
 71.50000000  59.19898303   4.99824818
 71.60000000  59.19898303   4.99824818
 71.70000000  59.19898303   4.99824818
 71.80000000  59.19898303   4.99824818
 71.90000000  59.19898303   4.99824818
 72.00000000  59.19898303   4.99824818
 72.10000000  59.19898303   4.99824818
 72.20000000  59.19898303   4.99824818
 72.30000000  59.19898303   4.99824818
 72.40000000  59.19898303   4.99824818
 72.50000000  59.19898303   4.99824818
 72.60000000  59.19898303   4.99824818
 72.70000000  59.19898303   4.99824818
 72.80000000  59.19898303   4.99824818
 72.90000000  59.19898303   4.99824818
 73.00000000  59.19898303   4.99824818
 73.10000000  59.19898303   4.99824818
 73.20000000  59.19898303   4.99824818
 73.30000000  59.19898303   4.99824818
 73.40000000  59.19898303   4.99824818
 73.50000000  59.19898303   4.99824818
 73.60000000  59.19898303   4.99824818
 73.70000000  59.19898304   4.99824818
 73.80000000  59.19898304   4.99824818
 73.90000000  59.19898304   4.99824818
 74.00000000  59.19898304   4.99824818
 74.10000000  59.19898304   4.99824818
 74.20000000  59.19898304   4.99824818
 74.30000000  59.19898304   4.99824818
 74.40000000  59.19898304   4.99824818
 74.50000000  59.19898304   4.99824818
 74.60000000  59.19898304   4.99824818
 74.70000000  59.19898304   4.99824818
 74.80000000  59.19898304   4.99824818
 74.90000000  59.19898304   4.99824818
 75.00000000  59.19898304   4.99824818
 75.10000000  59.19898304   4.99824818
 75.20000000  59.19898304   4.99824818
 75.30000000  59.19898304   4.99824818
 75.40000000  59.19898304   4.99824818
 75.50000000  59.19898304   4.99824818
 75.60000000  59.19898304   4.99824818
 75.70000000  59.19898304   4.99824818
 75.80000000  59.19898304   4.99824818
 75.90000000  59.19898304   4.99824818
 76.00000000  59.19898304   4.99824818
 76.10000000  59.19898305   4.99824818
 76.20000000  59.19898305   4.99824818
 76.30000000  59.19898305   4.99824818
 76.40000000  59.19898305   4.99824818
 76.50000000  59.19898305   4.99824818
 76.60000000  59.19898305   4.99824818
 76.70000000  59.19898305   4.99824818
 76.80000000  59.19898306   4.99824818
 76.90000000  59.19898306   4.99824818
 77.00000000  59.19898306   4.99824818
 77.10000000  59.19898306   4.99824818
 77.20000000  59.19898307   4.99824818
 77.30000000  59.19898307   4.99824818
 77.40000000  59.19898307   4.99824818
 77.50000000  59.19898308   4.99824819
 77.60000000  59.19898308   4.99824819
 77.70000000  59.19898309   4.99824819
 77.80000000  59.19898309   4.99824819
 77.90000000  59.19898310   4.99824819
 78.00000000  59.19898310   4.99824819
 78.10000000  59.19898311   4.99824819
 78.20000000  59.19898312   4.99824819
 78.30000000  59.19898313   4.99824819
 78.40000000  59.19898314   4.99824819
 78.50000000  59.19898315   4.99824819
 78.60000000  59.19898316   4.99824819
 78.70000000  59.19898317   4.99824819
 78.80000000  59.19898318   4.99824820
 78.90000000  59.19898319   4.99824820
 79.00000000  59.19898321   4.99824820
 79.10000000  59.19898323   4.99824820
 79.20000000  59.19898324   4.99824820
 79.30000000  59.19898326   4.99824821
 79.40000000  59.19898329   4.99824821
 79.50000000  59.19898331   4.99824821
 79.60000000  59.19898334   4.99824821
 79.70000000  59.19898336   4.99824822
 79.80000000  59.19898339   4.99824822
 79.90000000  59.19898343   4.99824822
 80.00000000  59.19898347   4.99824823
 80.10000000  59.19898350   4.99824823
 80.20000000  59.19898355   4.99824824
 80.30000000  59.19898360   4.99824824
 80.40000000  59.19898365   4.99824825
 80.50000000  59.19898370   4.99824825
 80.60000000  59.19898376   4.99824826
 80.70000000  59.19898383   4.99824827
 80.80000000  59.19898390   4.99824828
 80.90000000  59.19898398   4.99824829
 81.00000000  59.19898407   4.99824829
 81.10000000  59.19898416   4.99824830
 81.20000000  59.19898426   4.99824832
 81.30000000  59.19898437   4.99824833
 81.40000000  59.19898449   4.99824834
 81.50000000  59.19898462   4.99824836
 81.60000000  59.19898476   4.99824837
 81.70000000  59.19898492   4.99824839
 81.80000000  59.19898508   4.99824841
 81.90000000  59.19898526   4.99824843
 82.00000000  59.19898546   4.99824845
 82.10000000  59.19898567   4.99824847
 82.20000000  59.19898590   4.99824850
 82.30000000  59.19898615   4.99824853
 82.40000000  59.19898642   4.99824856
 82.50000000  59.19898672   4.99824859
 82.60000000  59.19898703   4.99824862
 82.70000000  59.19898738   4.99824866
 82.80000000  59.19898775   4.99824870
 82.90000000  59.19898816   4.99824875
 83.00000000  59.19898859   4.99824880
 83.10000000  59.19898907   4.99824885
 83.20000000  59.19898958   4.99824891
 83.30000000  59.19899014   4.99824897
 83.40000000  59.19899074   4.99824903
 83.50000000  59.19899138   4.99824910
 83.60000000  59.19899209   4.99824918
 83.70000000  59.19899284   4.99824927
 83.80000000  59.19899366   4.99824936
 83.90000000  59.19899455   4.99824946
 84.00000000  59.19899551   4.99824956
 84.10000000  59.19899654   4.99824968
 84.20000000  59.19899766   4.99824980
 84.30000000  59.19899886   4.99824993
 84.40000000  59.19900016   4.99825008
 84.50000000  59.19900156   4.99825023
 84.60000000  59.19900307   4.99825040
 84.70000000  59.19900470   4.99825058
 84.80000000  59.19900646   4.99825077
 84.90000000  59.19900836   4.99825098
 85.00000000  59.19901040   4.99825121
 85.10000000  59.19901260   4.99825145
 85.20000000  59.19901498   4.99825172
 85.30000000  59.19901753   4.99825200
 85.40000000  59.19902028   4.99825231
 85.50000000  59.19902324   4.99825263
 85.60000000  59.19902643   4.99825299
 85.70000000  59.19902985   4.99825337
 85.80000000  59.19903354   4.99825377
 85.90000000  59.19903751   4.99825421
 86.00000000  59.19904177   4.99825469
 86.10000000  59.19904636   4.99825519
 86.20000000  59.19905129   4.99825574
 86.30000000  59.19905658   4.99825633
 86.40000000  59.19906227   4.99825696
 86.50000000  59.19906838   4.99825763
 86.60000000  59.19907494   4.99825836
 86.70000000  59.19908199   4.99825914
 86.80000000  59.19908955   4.99825998
 86.90000000  59.19909766   4.99826087
 87.00000000  59.19910636   4.99826184
 87.10000000  59.19911570   4.99826287
 87.20000000  59.19912570   4.99826398
 87.30000000  59.19913644   4.99826517
 87.40000000  59.19914794   4.99826644
 87.50000000  59.19916026   4.99826781
 87.60000000  59.19917347   4.99826927
 87.70000000  59.19918761   4.99827084
 87.80000000  59.19920275   4.99827251
 87.90000000  59.19921897   4.99827431
 88.00000000  59.19923632   4.99827623
 88.10000000  59.19925490   4.99827829
 88.20000000  59.19927477   4.99828049
 88.30000000  59.19929602   4.99828284
 88.40000000  59.19931875   4.99828536
 88.50000000  59.19934305   4.99828805
 88.60000000  59.19936902   4.99829093
 88.70000000  59.19939678   4.99829400
 88.80000000  59.19942644   4.99829729
 88.90000000  59.19945812   4.99830080
 89.00000000  59.19949194   4.99830454
 89.10000000  59.19952806   4.99830854
 89.20000000  59.19956662   4.99831281
 89.30000000  59.19960776   4.99831737
 89.40000000  59.19965166   4.99832223
 89.50000000  59.19969849   4.99832742
 89.60000000  59.19974843   4.99833295
 89.70000000  59.19980168   4.99833884
 89.80000000  59.19985844   4.99834513
 89.90000000  59.19991893   4.99835183
 90.00000000  59.19998338   4.99835897
 90.10000000  59.20005203   4.99836657
 90.20000000  59.20012515   4.99837467
 90.30000000  59.20020301   4.99838329
 90.40000000  59.20028588   4.99839247
 90.50000000  59.20037408   4.99840224
 90.60000000  59.20046793   4.99841263
 90.70000000  59.20056776   4.99842369
 90.80000000  59.20067394   4.99843545
 90.90000000  59.20078684   4.99844795
 91.00000000  59.20090686   4.99846124
 91.10000000  59.20103441   4.99847537
 91.20000000  59.20116995   4.99849038
 91.30000000  59.20131393   4.99850633
 91.40000000  59.20146685   4.99852326
 91.50000000  59.20162922   4.99854125
 91.60000000  59.20180160   4.99856034
 91.70000000  59.20198456   4.99858060
 91.80000000  59.20217869   4.99860210
 91.90000000  59.20238464   4.99862491
 92.00000000  59.20260308   4.99864910
 92.10000000  59.20283470   4.99867475
 92.20000000  59.20308026   4.99870195
 92.30000000  59.20334052   4.99873077
 92.40000000  59.20361631   4.99876132
 92.50000000  59.20390849   4.99879367
 92.60000000  59.20421796   4.99882795
 92.70000000  59.20454566   4.99886424
 92.80000000  59.20489259   4.99890266
 92.90000000  59.20525980   4.99894333
 93.00000000  59.20564839   4.99898637
 93.10000000  59.20605949   4.99903190
 93.20000000  59.20649433   4.99908006
 93.30000000  59.20695416   4.99913098
 93.40000000  59.20744031   4.99918482
 93.50000000  59.20795417   4.99924173
 93.60000000  59.20849719   4.99930187
 93.70000000  59.20907090   4.99936541
 93.80000000  59.20967689   4.99943252
 93.90000000  59.21031684   4.99950340
 94.00000000  59.21099249   4.99957823
 94.10000000  59.21170566   4.99965721
 94.20000000  59.21245828   4.99974056
 94.30000000  59.21325235   4.99982851
 94.40000000  59.21408995   4.99992127
 94.50000000  59.21497326   5.00001910
 94.60000000  59.21590458   5.00012224
 94.70000000  59.21688628   5.00023096
 94.80000000  59.21792086   5.00034554
 94.90000000  59.21901091   5.00046627
 95.00000000  59.22015914   5.00059343
 95.10000000  59.22136839   5.00072736
 95.20000000  59.22264161   5.00086836
 95.30000000  59.22398186   5.00101680
 95.40000000  59.22539237   5.00117301
 95.50000000  59.22687648   5.00133738
 95.60000000  59.22843766   5.00151028
 95.70000000  59.23007954   5.00169212
 95.80000000  59.23180591   5.00188331
 95.90000000  59.23362069   5.00208430
 96.00000000  59.23552798   5.00229553
 96.10000000  59.23753203   5.00251748
 96.20000000  59.23963728   5.00275063
 96.30000000  59.24184832   5.00299551
 96.40000000  59.24416994   5.00325263
 96.50000000  59.24660712   5.00352254
 96.60000000  59.24916503   5.00380583
 96.70000000  59.25184902   5.00410308
 96.80000000  59.25466467   5.00441492
 96.90000000  59.25761777   5.00474197
 97.00000000  59.26071431   5.00508491
 97.10000000  59.26396053   5.00544443
 97.20000000  59.26736288   5.00582124
 97.30000000  59.27092805   5.00621608
 97.40000000  59.27466298   5.00662973
 97.50000000  59.27857487   5.00706297
 97.60000000  59.28267115   5.00751663
 97.70000000  59.28695955   5.00799157
 97.80000000  59.29144804   5.00848867
 97.90000000  59.29614489   5.00900885
 98.00000000  59.30105864   5.00955304
 98.10000000  59.30619815   5.01012224
 98.20000000  59.31157254   5.01071746
 98.30000000  59.31719129   5.01133973
 98.40000000  59.32306414   5.01199015
 98.50000000  59.32920119   5.01266983
 98.60000000  59.33561286   5.01337992
 98.70000000  59.34230992   5.01412162
 98.80000000  59.34930345   5.01489615
 98.90000000  59.35660492   5.01570479
 99.00000000  59.36422615   5.01654884
 99.10000000  59.37217932   5.01742965
 99.20000000  59.38047699   5.01834862
 99.30000000  59.38913211   5.01930717
 99.40000000  59.39815801   5.02030679
 99.50000000  59.40756842   5.02134899
 99.60000000  59.41737749   5.02243534
 99.70000000  59.42759977   5.02356746
 99.80000000  59.43825023   5.02474700
 99.90000000  59.44934426   5.02597566
100.00000000  59.46089771   5.02725520
100.10000000  59.47292684   5.02858743
100.20000000  59.48544839   5.02997419
100.30000000  59.49847952   5.03141739
100.40000000  59.51203788   5.03291897
100.50000000  59.52614158   5.03448096
100.60000000  59.54080920   5.03610539
100.70000000  59.55605980   5.03779440
100.80000000  59.57191293   5.03955013
100.90000000  59.58838862   5.04137481
101.00000000  59.60550743   5.04327072
101.10000000  59.62329037   5.04524018
101.20000000  59.64175900   5.04728557
101.30000000  59.66093538   5.04940936
101.40000000  59.68084208   5.05161402
101.50000000  59.70150218   5.05390213
101.60000000  59.72293931   5.05627628
101.70000000  59.74517760   5.05873917
101.80000000  59.76824172   5.06129352
101.90000000  59.79215688   5.06394212
102.00000000  59.81694882   5.06668783
102.10000000  59.84264379   5.06953354
102.20000000  59.86926862   5.07248224
102.30000000  59.89685065   5.07553695
102.40000000  59.92541776   5.07870075
102.50000000  59.95499837   5.08197680
102.60000000  59.98562144   5.08536831
102.70000000  60.01731646   5.08887853
102.80000000  60.05011347   5.09251079
102.90000000  60.08404302   5.09626848
103.00000000  60.11913619   5.10015505
103.10000000  60.15542461   5.10417399
103.20000000  60.19294040   5.10832886
103.30000000  60.23171623   5.11262328
103.40000000  60.27178524   5.11706092
103.50000000  60.31318111   5.12164551
103.60000000  60.35593800   5.12638083
103.70000000  60.40009057   5.13127072
103.80000000  60.44567396   5.13631908
103.90000000  60.49272379   5.14152984
104.00000000  60.54127612   5.14690701
104.10000000  60.59136751   5.15245462
104.20000000  60.64303492   5.15817678
104.30000000  60.69631576   5.16407763
104.40000000  60.75124786   5.17016135
104.50000000  60.80786945   5.17643219
104.60000000  60.86621916   5.18289442
104.70000000  60.92633600   5.18955235
104.80000000  60.98825933   5.19641035
104.90000000  61.05202886   5.20347282
105.00000000  61.11768462   5.21074419
105.10000000  61.18526697   5.21822893
105.20000000  61.25481653   5.22593153
105.30000000  61.32637422   5.23385654
105.40000000  61.39998120   5.24200851
105.50000000  61.47567885   5.25039201
105.60000000  61.55350877   5.25901167
105.70000000  61.63351273   5.26787210
105.80000000  61.71573267   5.27697795
105.90000000  61.80021067   5.28633388
106.00000000  61.88698889   5.29594456
106.10000000  61.97610961   5.30581467
106.20000000  62.06761515   5.31594890
106.30000000  62.16154785   5.32635194
106.40000000  62.25795006   5.33702847
106.50000000  62.35686410   5.34798319
106.60000000  62.45833223   5.35922078
106.70000000  62.56239660   5.37074590
106.80000000  62.66909926   5.38256321
106.90000000  62.77848210   5.39467734
107.00000000  62.89058683   5.40709293
107.10000000  63.00545491   5.41981456
107.20000000  63.12312756   5.43284679
107.30000000  63.24364573   5.44619417
107.40000000  63.36705001   5.45986118
107.50000000  63.49338065   5.47385229
107.60000000  63.62267748   5.48817190
107.70000000  63.75497992   5.50282438
107.80000000  63.89032690   5.51781404
107.90000000  64.02875685   5.53314515
108.00000000  64.17030763   5.54882188
108.10000000  64.31501653   5.56484838
108.20000000  64.46292020   5.58122870
108.30000000  64.61405464   5.59796682
108.40000000  64.76845513   5.61506666
108.50000000  64.92615620   5.63253204
108.60000000  65.08719161   5.65036669
108.70000000  65.25159428   5.66857427
108.80000000  65.41939628   5.68715833
108.90000000  65.59062874   5.70612230
109.00000000  65.76532187   5.72546955
109.10000000  65.94350490   5.74520330
109.20000000  66.12520601   5.76532668
109.30000000  66.31045233   5.78584269
109.40000000  66.49926987   5.80675422
109.50000000  66.69168350   5.82806401
109.60000000  66.88771691   5.84977469
109.70000000  67.08739256   5.87188875
109.80000000  67.29073165   5.89440853
109.90000000  67.49775406   5.91733624
110.00000000  67.70847837   5.94067394
110.10000000  67.92292176   5.96442352
110.20000000  68.14110000   5.98858674
110.30000000  68.36302741   6.01316518
110.40000000  68.58871684   6.03816026
110.50000000  68.81817961   6.06357324
110.60000000  69.05142552   6.08940520
110.70000000  69.28846274   6.11565705
110.80000000  69.52929787   6.14232952
110.90000000  69.77393584   6.16942315
111.00000000  70.02237993   6.19693830
111.10000000  70.27463168   6.22487516
111.20000000  70.53069094   6.25323370
111.30000000  70.79055579   6.28201370
111.40000000  71.05422251   6.31121477
111.50000000  71.32168561   6.34083628
111.60000000  71.59293775   6.37087743
111.70000000  71.86796975   6.40133719
111.80000000  72.14677055   6.43221435
111.90000000  72.42932724   6.46350748
112.00000000  72.71562496   6.49521492
112.10000000  73.00564697   6.52733483
112.20000000  73.29937457   6.55986513
112.30000000  73.59678715   6.59280355
112.40000000  73.89786212   6.62614757
112.50000000  74.20257493   6.65989448
112.60000000  74.51089908   6.69404135
112.70000000  74.82280607   6.72858502
112.80000000  75.13826545   6.76352212
112.90000000  75.45724476   6.79884904
113.00000000  75.77970959   6.83456199
113.10000000  76.10562352   6.87065693
113.20000000  76.43494819   6.90712960
113.30000000  76.76764325   6.94397554
113.40000000  77.10366640   6.98119007
113.50000000  77.44297337   7.01876829
113.60000000  77.78551797   7.05670507
113.70000000  78.13125208   7.09499509
113.80000000  78.48012565   7.13363280
113.90000000  78.83208675   7.17261246
114.00000000  79.18708158   7.21192810
114.10000000  79.54505446   7.25157356
114.20000000  79.90594789   7.29154247
114.30000000  80.26970258   7.33182826
114.40000000  80.63625741   7.37242418
114.50000000  81.00554956   7.41332324
114.60000000  81.37751443   7.45451832
114.70000000  81.75208578   7.49600206
114.80000000  82.12919567   7.53776694
114.90000000  82.50877455   7.57980526
115.00000000  82.89075129   7.62210915
115.10000000  83.27505320   7.66467055
115.20000000  83.66160609   7.70748124
115.30000000  84.05033430   7.75053285
115.40000000  84.44116073   7.79381684
115.50000000  84.83400695   7.83732452
115.60000000  85.22879314   7.88104705
115.70000000  85.62543825   7.92497545
115.80000000  86.02385996   7.96910062
115.90000000  86.42397477   8.01341330
116.00000000  86.82569808   8.05790411
116.10000000  87.22894418   8.10256358
116.20000000  87.63362636   8.14738209
116.30000000  88.03965693   8.19234993
116.40000000  88.44694730   8.23745730
116.50000000  88.85540802   8.28269428
116.60000000  89.26494885   8.32805089
116.70000000  89.67547881   8.37351704
116.80000000  90.08690628   8.41908259
116.90000000  90.49913899   8.46473732
117.00000000  90.91208413   8.51047096
117.10000000  91.32564842   8.55627316
117.20000000  91.73973815   8.60213356
117.30000000  92.15425924   8.64804173
117.40000000  92.56911733   8.69398722
117.50000000  92.98421781   8.73995956
117.60000000  93.39946592   8.78594824
117.70000000  93.81476680   8.83194277
117.80000000  94.23002555   8.87793264
117.90000000  94.64514729   8.92390733
118.00000000  95.06003724   8.96985635
118.10000000  95.47460078   9.01576922
118.20000000  95.88874352   9.06163549
118.30000000  96.30237135   9.10744473
118.40000000  96.71539051   9.15318656
118.50000000  97.12770766   9.19885064
118.60000000  97.53922994   9.24442669
118.70000000  97.94986503   9.28990449
118.80000000  98.35952122   9.33527387
118.90000000  98.76810745   9.38052476
119.00000000  99.17553340   9.42564714
119.10000000  99.58170953   9.47063111
119.20000000  99.98654716   9.51546683
119.30000000 100.38995849   9.56014460
119.40000000 100.79185668   9.60465478
119.50000000 101.19215594   9.64898788
119.60000000 101.59077151   9.69313452
119.70000000 101.98761977   9.73708542
119.80000000 102.38261829   9.78083147
119.90000000 102.77568584   9.82436366
120.00000000 103.16674249   9.86767315
120.10000000 103.55570963   9.91075122
120.20000000 103.94251003   9.95358932
120.30000000 104.32706784   9.99617906
120.40000000 104.70930873  10.03851220
120.50000000 105.08915982  10.08058067
120.60000000 105.46654981  10.12237658
120.70000000 105.84140898  10.16389219
120.80000000 106.21366920  10.20511997
120.90000000 106.58326402  10.24605256
121.00000000 106.95012869  10.28668279
121.10000000 107.31420016  10.32700367
121.20000000 107.67541714  10.36700841
121.30000000 108.03372013  10.40669043
121.40000000 108.38905140  10.44604333
121.50000000 108.74135510  10.48506093
121.60000000 109.09057720  10.52373724
121.70000000 109.43666556  10.56206649
121.80000000 109.77956993  10.60004312
121.90000000 110.11924196  10.63766176
122.00000000 110.45563525  10.67491728
122.10000000 110.78870531  10.71180476
122.20000000 111.11840963  10.74831948
122.30000000 111.44470763  10.78445695
122.40000000 111.76756073  10.82021289
122.50000000 112.08693229  10.85558326
122.60000000 112.40278767  10.89056421
122.70000000 112.71509421  10.92515213
122.80000000 113.02382122  10.95934361
122.90000000 113.32893998  10.99313548
123.00000000 113.63042377  11.02652478
123.10000000 113.92824783  11.05950876
123.20000000 114.22238934  11.09208490
123.30000000 114.51282747  11.12425089
123.40000000 114.79954331  11.15600464
123.50000000 115.08251990  11.18734426
123.60000000 115.36174217  11.21826810
123.70000000 115.63719699  11.24877469
123.80000000 115.90887310  11.27886278
123.90000000 116.17676110  11.30853134
124.00000000 116.44085346  11.33777954
124.10000000 116.70114447  11.36660673
124.20000000 116.95763021  11.39501250
124.30000000 117.21030858  11.42299659
124.40000000 117.45917921  11.45055898
124.50000000 117.70424347  11.47769981
124.60000000 117.94550443  11.50441942
124.70000000 118.18296685  11.53071835
124.80000000 118.41663714  11.55659730
124.90000000 118.64652330  11.58205715
125.00000000 118.87263494  11.60709897
125.10000000 119.09498321  11.63172400
125.20000000 119.31358079  11.65593364
125.30000000 119.52844185  11.67972946
125.40000000 119.73958199  11.70311318
125.50000000 119.94701825  11.72608669
125.60000000 120.15076902  11.74865204
125.70000000 120.35085407  11.77081140
125.80000000 120.54729443  11.79256711
125.90000000 120.74011244  11.81392164
126.00000000 120.92933164  11.83487761
126.10000000 121.11497678  11.85543773
126.20000000 121.29707373  11.87560490
126.30000000 121.47564952  11.89538208
126.40000000 121.65073219  11.91477240
126.50000000 121.82235087  11.93377908
126.60000000 121.99053564  11.95240544
126.70000000 122.15531756  11.97065494
126.80000000 122.31672857  11.98853109
126.90000000 122.47480152  12.00603755
127.00000000 122.62957006  12.02317803
127.10000000 122.78106864  12.03995635
127.20000000 122.92933246  12.05637641
127.30000000 123.07439743  12.07244219
127.40000000 123.21630015  12.08815773
127.50000000 123.35507782  12.10352716
127.60000000 123.49076825  12.11855466
127.70000000 123.62340981  12.13324448
127.80000000 123.75304136  12.14760092
127.90000000 123.87970228  12.16162834
128.00000000 124.00343235  12.17533114
128.10000000 124.12427177  12.18871378
128.20000000 124.24226111  12.20178075
128.30000000 124.35744127  12.21453657
128.40000000 124.46985342  12.22698579
128.50000000 124.57953903  12.23913302
128.60000000 124.68653977  12.25098286
128.70000000 124.79089751  12.26253994
128.80000000 124.89265427  12.27380892
128.90000000 124.99185220  12.28479446
129.00000000 125.08853355  12.29550123
129.10000000 125.18274064  12.30593392
129.20000000 125.27451580  12.31609721
129.30000000 125.36390139  12.32599578
129.40000000 125.45093972  12.33563432
129.50000000 125.53567307  12.34501750
129.60000000 125.61814362  12.35414999
129.70000000 125.69839346  12.36303644
129.80000000 125.77646454  12.37168149
129.90000000 125.85239866  12.38008975
130.00000000 125.92623742  12.38826584
130.10000000 125.99802224  12.39621432
130.20000000 126.06779430  12.40393974
130.30000000 126.13559453  12.41144663
130.40000000 126.20146360  12.41873948
130.50000000 126.26544188  12.42582275
130.60000000 126.32756945  12.43270086
130.70000000 126.38788604  12.43937820
130.80000000 126.44643106  12.44585911
130.90000000 126.50324356  12.45214791
131.00000000 126.55836218  12.45824884
131.10000000 126.61182522  12.46416614
131.20000000 126.66367052  12.46990398
131.30000000 126.71393556  12.47546648
131.40000000 126.76265734  12.48085771
131.50000000 126.80987245  12.48608170
131.60000000 126.85561700  12.49114242
131.70000000 126.89992666  12.49604380
131.80000000 126.94283661  12.50078969
131.90000000 126.98438156  12.50538390
132.00000000 127.02459572  12.50983019
132.10000000 127.06351279  12.51413224
132.20000000 127.10116599  12.51829370
132.30000000 127.13758802  12.52231814
132.40000000 127.17281106  12.52620908
132.50000000 127.20686676  12.52996996
132.60000000 127.23978626  12.53360419
132.70000000 127.27160017  12.53711508
132.80000000 127.30233855  12.54050592
132.90000000 127.33203094  12.54377989
133.00000000 127.36070635  12.54694015
133.10000000 127.38839323  12.54998977
133.20000000 127.41511951  12.55293175
133.30000000 127.44091257  12.55576905
133.40000000 127.46579926  12.55850454
133.50000000 127.48980589  12.56114104
133.60000000 127.51295822  12.56368130
133.70000000 127.53528149  12.56612800
133.80000000 127.55680040  12.56848376
133.90000000 127.57753912  12.57075113
134.00000000 127.59752129  12.57293259
134.10000000 127.61677003  12.57503055
134.20000000 127.63530792  12.57704738
134.30000000 127.65315705  12.57898536
134.40000000 127.67033896  12.58084669
134.50000000 127.68687473  12.58263354
134.60000000 127.70278487  12.58434799
134.70000000 127.71808946  12.58599205
134.80000000 127.73280802  12.58756767
134.90000000 127.74695962  12.58907673
135.00000000 127.76056285  12.59052106
135.10000000 127.77363579  12.59190239
135.20000000 127.78619607  12.59322242
135.30000000 127.79826085  12.59448275
135.40000000 127.80984683  12.59568493
135.50000000 127.82097026  12.59683044
135.60000000 127.83164693  12.59792069
135.70000000 127.84189221  12.59895703
135.80000000 127.85172103  12.59994073
135.90000000 127.86114787  12.60087300
136.00000000 127.87018683  12.60175498
136.10000000 127.87885158  12.60258773
136.20000000 127.88715537  12.60337227
136.30000000 127.89511108  12.60410952
136.40000000 127.90273117  12.60480034
136.50000000 127.91002775  12.60544553
136.60000000 127.91701253  12.60604580
136.70000000 127.92369686  12.60660182
136.80000000 127.93009171  12.60711415
136.90000000 127.93620773  12.60758330
137.00000000 127.94205520  12.60800970
137.10000000 127.94764406  12.60839372
137.20000000 127.95298391  12.60873564
137.30000000 127.95808405  12.60903567
137.40000000 127.96295345  12.60929394
137.50000000 127.96760074  12.60951051
137.60000000 127.97203429  12.60968535
137.70000000 127.97626214  12.60981836
137.80000000 127.98029206  12.60990937
137.90000000 127.98413150  12.60995810
138.00000000 127.98778768  12.60996421
138.10000000 127.99126750  12.60992727
138.20000000 127.99457764  12.60984677
138.30000000 127.99772449  12.60972209
138.40000000 128.00071418  12.60955255
138.50000000 128.00355263  12.60933736
138.60000000 128.00624549  12.60907565
138.70000000 128.00879817  12.60876646
138.80000000 128.01121588  12.60840871
138.90000000 128.01350357  12.60800125
139.00000000 128.01566601  12.60754283
139.10000000 128.01770771  12.60703206
139.20000000 128.01963302  12.60646751
139.30000000 128.02144606  12.60584758
139.40000000 128.02315075  12.60517062
139.50000000 128.02475083  12.60443482
139.60000000 128.02624985  12.60363831
139.70000000 128.02765116  12.60277905
139.80000000 128.02895796  12.60185492
139.90000000 128.03017325  12.60086367
140.00000000 128.03129986  12.59980294
140.10000000 128.03234048  12.59867023
140.20000000 128.03329760  12.59746291
140.30000000 128.03417358  12.59617824
140.40000000 128.03497061  12.59481333
140.50000000 128.03569074  12.59336517
140.60000000 128.03633586  12.59183060
140.70000000 128.03690773  12.59020632
140.80000000 128.03740795  12.58848890
140.90000000 128.03783801  12.58667475
141.00000000 128.03819923  12.58476015
141.10000000 128.03849282  12.58274119
141.20000000 128.03871986  12.58061386
141.30000000 128.03888130  12.57837394
141.40000000 128.03897797  12.57601710
141.50000000 128.03901057  12.57353879
141.60000000 128.03897969  12.57093436
141.70000000 128.03888580  12.56819893
141.80000000 128.03872927  12.56532750
141.90000000 128.03851033  12.56231486
142.00000000 128.03822911  12.55915564
142.10000000 128.03788566  12.55584430
142.20000000 128.03747989  12.55237509
142.30000000 128.03701163  12.54874212
142.40000000 128.03648058  12.54493927
142.50000000 128.03588637  12.54096026
142.60000000 128.03522852  12.53679862
142.70000000 128.03450645  12.53244766
142.80000000 128.03371949  12.52790053
142.90000000 128.03286687  12.52315017
143.00000000 128.03194774  12.51818932
143.10000000 128.03096116  12.51301053
143.20000000 128.02990609  12.50760614
143.30000000 128.02878140  12.50196829
143.40000000 128.02758589  12.49608892
143.50000000 128.02631827  12.48995978
143.60000000 128.02497716  12.48357239
143.70000000 128.02356111  12.47691809
143.80000000 128.02206859  12.46998800
143.90000000 128.02049797  12.46277305
144.00000000 128.01884756  12.45526395
144.10000000 128.01711561  12.44745121
144.20000000 128.01530026  12.43932516
144.30000000 128.01339961  12.43087589
144.40000000 128.01141166  12.42209331
144.50000000 128.00933436  12.41296715
144.60000000 128.00716559  12.40348690
144.70000000 128.00490316  12.39364190
144.80000000 128.00254480  12.38342126
144.90000000 128.00008821  12.37281393
145.00000000 127.99753098  12.36180864
145.10000000 127.99487069  12.35039398
145.20000000 127.99210483  12.33855833
145.30000000 127.98923084  12.32628990
145.40000000 127.98624610  12.31357672
145.50000000 127.98314795  12.30040669
145.60000000 127.97993367  12.28676752
145.70000000 127.97660049  12.27264675
145.80000000 127.97314558  12.25803182
145.90000000 127.96956610  12.24290998
146.00000000 127.96585914  12.22726837
146.10000000 127.96202174  12.21109399
146.20000000 127.95805093  12.19437372
146.30000000 127.95394368  12.17709434
146.40000000 127.94969695  12.15924251
146.50000000 127.94530763  12.14080480
146.60000000 127.94077263  12.12176768
146.70000000 127.93608879  12.10211756
146.80000000 127.93125296  12.08184077
146.90000000 127.92626195  12.06092360
147.00000000 127.92111255  12.03935227
147.10000000 127.91580156  12.01711298
147.20000000 127.91032574  11.99419190
147.30000000 127.90468186  11.97057518
147.40000000 127.89886668  11.94624899
147.50000000 127.89287694  11.92119950
147.60000000 127.88670941  11.89541290
147.70000000 127.88036085  11.86887543
147.80000000 127.87382803  11.84157338
147.90000000 127.86710773  11.81349309
148.00000000 127.86019674  11.78462102
148.10000000 127.85309189  11.75494368
148.20000000 127.84579000  11.72444772
148.30000000 127.83828794  11.69311990
148.40000000 127.83058260  11.66094714
148.50000000 127.82267090  11.62791649
148.60000000 127.81454981  11.59401519
148.70000000 127.80621633  11.55923067
148.80000000 127.79766750  11.52355057
148.90000000 127.78890043  11.48696272
149.00000000 127.77991224  11.44945523
149.10000000 127.77070016  11.41101645
149.20000000 127.76126142  11.37163498
149.30000000 127.75159337  11.33129974
149.40000000 127.74169337  11.28999994
149.50000000 127.73155890  11.24772512
149.60000000 127.72118748  11.20446517
149.70000000 127.71057672  11.16021031
149.80000000 127.69972429  11.11495117
149.90000000 127.68862797  11.06867873
150.00000000 127.67728560  11.02138443
150.10000000 127.66569511  10.97306009
150.20000000 127.65385454  10.92369800
150.30000000 127.64176198  10.87329091
150.40000000 127.62941566  10.82183202
150.50000000 127.61681385  10.76931506
150.60000000 127.60395497  10.71573423
150.70000000 127.59083750  10.66108429
150.80000000 127.57746000  10.60536050
150.90000000 127.56382118  10.54855871
151.00000000 127.54991978  10.49067532
151.10000000 127.53575466  10.43170731
151.20000000 127.52132479  10.37165227
151.30000000 127.50662918  10.31050839
151.40000000 127.49166696  10.24827448
151.50000000 127.47643731  10.18495001
151.60000000 127.46093950  10.12053506
151.70000000 127.44517285  10.05503040
151.80000000 127.42913676   9.98843745
151.90000000 127.41283064   9.92075831
152.00000000 127.39625398   9.85199580
152.10000000 127.37940626   9.78215339
152.20000000 127.36228698   9.71123530
152.30000000 127.34489566   9.63924642
152.40000000 127.32723178   9.56619241
152.50000000 127.30929477   9.49207961
152.60000000 127.29108402   9.41691513
152.70000000 127.27259885   9.34070679
152.80000000 127.25383843   9.26346317
152.90000000 127.23480184   9.18519357
153.00000000 127.21548796   9.10590805
153.10000000 127.19589549   9.02561743
153.20000000 127.17602290   8.94433325
153.30000000 127.15586835   8.86206782
153.40000000 127.13542972   8.77883418
153.50000000 127.11470450   8.69464613
153.60000000 127.09368977   8.60951820
153.70000000 127.07238213   8.52346565
153.80000000 127.05077767   8.43650450
153.90000000 127.02887184   8.34865147
154.00000000 127.00665948   8.25992403
154.10000000 126.98413463   8.17034034
154.20000000 126.96129055   8.07991927
154.30000000 126.93811958   7.98868042
154.40000000 126.91461306   7.89664403
154.50000000 126.89076123   7.80383107
154.60000000 126.86655313   7.71026314
154.70000000 126.84197650   7.61596251
154.80000000 126.81701761   7.52095211
154.90000000 126.79166123   7.42525548
155.00000000 126.76589037   7.32889679
155.10000000 126.73968627   7.23190081
155.20000000 126.71302814   7.13429290
155.30000000 126.68589307   7.03609900
155.40000000 126.65825583   6.93734558
155.50000000 126.63008873   6.83805969
155.60000000 126.60136138   6.73826887
155.70000000 126.57204056   6.63800118
155.80000000 126.54208996   6.53728517
155.90000000 126.51147001   6.43614985
156.00000000 126.48013764   6.33462469
156.10000000 126.44804606   6.23273957
156.20000000 126.41514451   6.13052481
156.30000000 126.38137803   6.02801108
156.40000000 126.34668718   5.92522946
156.50000000 126.31100779   5.82221135
156.60000000 126.27427069   5.71898849
156.70000000 126.23640142   5.61559294
156.80000000 126.19731994   5.51205702
156.90000000 126.15694035   5.40841334
157.00000000 126.11517055   5.30469473
157.10000000 126.07191201   5.20093425
157.20000000 126.02705935   5.09716518
157.30000000 125.98050012   4.99342095
157.40000000 125.93211444   4.88973517
157.50000000 125.88177466   4.78614158
157.60000000 125.82934508   4.68267402
157.70000000 125.77468160   4.57936645
157.80000000 125.71763141   4.47625289
157.90000000 125.65803268   4.37336740
158.00000000 125.59571422   4.27074409
158.10000000 125.53049521   4.16841707
158.20000000 125.46218489   4.06642044
158.30000000 125.39058228   3.96478826
158.40000000 125.31547587   3.86355455
158.50000000 125.23664342   3.76275325
158.60000000 125.15385166   3.66241820
158.70000000 125.06685611   3.56258315
158.80000000 124.97540083   3.46328168
158.90000000 124.87921829   3.36454725
159.00000000 124.77802915   3.26641312
159.10000000 124.67154222   3.16891236
159.20000000 124.55945427   3.07207784
159.30000000 124.44145002   2.97594218
159.40000000 124.31720212   2.88053775
159.50000000 124.18637112   2.78589664
159.60000000 124.04860555   2.69205066
159.70000000 123.90354200   2.59903128
159.80000000 123.75080529   2.50686965
159.90000000 123.59000861   2.41559656
160.00000000 123.42075380   2.32524242
160.10000000 123.24263161   2.23583724
160.20000000 123.05522209   2.14741062
160.30000000 122.85809493   2.05999170
160.40000000 122.65080999   1.97360916
160.50000000 122.43291776   1.88829121
160.60000000 122.20396000   1.80406554
160.70000000 121.96347033   1.72095930
160.80000000 121.71097498   1.63899909
160.90000000 121.44599355   1.55821095
161.00000000 121.16803984   1.47862030
161.10000000 120.87662278   1.40025192
161.20000000 120.57124735   1.32312997
161.30000000 120.25141565   1.24727791
161.40000000 119.91662801   1.17271851
161.50000000 119.56638408   1.09947381
161.60000000 119.20018413   1.02756509
161.70000000 118.81753025   0.95701285
161.80000000 118.41792772   0.88783679
161.90000000 118.00088641   0.82005577
162.00000000 117.56592217   0.75368780
162.10000000 117.11255835   0.68874999
162.20000000 116.64032729   0.62525854
162.30000000 116.14877191   0.56322871
162.40000000 115.63744730   0.50267479
162.50000000 115.10592231   0.44361008
162.60000000 114.55378126   0.38604684
162.70000000 113.98062552   0.32999631
162.80000000 113.38607527   0.27546864
162.90000000 112.76977112   0.22247289
163.00000000 112.13137581   0.17101698
163.10000000 111.47057588   0.12110772
163.20000000 110.78708329   0.07275071
163.30000000 110.08063711   0.02595040
163.40000000 109.35100505  -0.01929000
163.50000000 108.59798507  -0.06296849
163.60000000 107.82140686  -0.10508431
163.70000000 107.02113333  -0.14563799
163.80000000 106.19706196  -0.18463130
163.90000000 105.34912618  -0.22206731
164.00000000 104.47729659  -0.25795041
164.10000000 103.58158212  -0.29228627
164.20000000 102.66203115  -0.32508187
164.30000000 101.71873243  -0.35634553
164.40000000 100.75181599  -0.38608688
164.50000000  99.76145388  -0.41431684
164.60000000  98.74786082  -0.44104767
164.70000000  97.71129474  -0.46629295
164.80000000  96.65205714  -0.49006752
164.90000000  95.57049335  -0.51238753
165.00000000  94.46699270  -0.53327040
165.10000000  93.34198843  -0.55273480
165.20000000  92.19595758  -0.57080065
165.30000000  91.02942069  -0.58748904
165.40000000  89.84294129  -0.60282228
165.50000000  88.63712538  -0.61682383
165.60000000  87.41262059  -0.62951826
165.70000000  86.17011537  -0.64093124
165.80000000  84.91033789  -0.65108948
165.90000000  83.63405488  -0.66002070
166.00000000  82.34207027  -0.66775358
166.10000000  81.03522378  -0.67431774
166.20000000  79.71438926  -0.67974365
166.30000000  78.38047300  -0.68406261
166.40000000  77.03441185  -0.68730668
166.50000000  75.67717127  -0.68950864
166.60000000  74.30974323  -0.69070190
166.70000000  72.93314404  -0.69092051
166.80000000  71.54841206  -0.69019901
166.90000000  70.15660534  -0.68857243
167.00000000  68.75879917  -0.68607621
167.10000000  67.35608357  -0.68274613
167.20000000  65.94956070  -0.67861825
167.30000000  64.54034228  -0.67372885
167.40000000  63.12954689  -0.66811434
167.50000000  61.71829730  -0.66181123
167.60000000  60.30771778  -0.65485602
167.70000000  58.89893135  -0.64728518
167.80000000  57.49305714  -0.63913504
167.90000000  56.09120762  -0.63044177
168.00000000  54.69448602  -0.62124127
168.10000000  53.30398365  -0.61156915
168.20000000  51.92077733  -0.60146062
168.30000000  50.54592688  -0.59095049
168.40000000  49.18047269  -0.58007306
168.50000000  47.82543328  -0.56886208
168.60000000  46.48180307  -0.55735072
168.70000000  45.15055015  -0.54557146
168.80000000  43.83261422  -0.53355611
168.90000000  42.52890456  -0.52133573
169.00000000  41.24029820  -0.50894056
169.10000000  39.96763816  -0.49640004
169.20000000  38.71173183  -0.48374270
169.30000000  37.47334951  -0.47099618
169.40000000  36.25322305  -0.45818719
169.50000000  35.05204463  -0.44534146
169.60000000  33.87046574  -0.43248372
169.70000000  32.70909623  -0.41963769
169.80000000  31.56850357  -0.40682606
169.90000000  30.44921222  -0.39407044
170.00000000  29.35170315  -0.38139142
170.10000000  28.27641354  -0.36880848
170.20000000  27.22373659  -0.35634003
170.30000000  26.19402147  -0.34400342
170.40000000  25.18757347  -0.33181488
170.50000000  24.20465419  -0.31978961
170.60000000  23.24548194  -0.30794169
170.70000000  22.31023226  -0.29628417
170.80000000  21.39903852  -0.28482904
170.90000000  20.51199268  -0.27358727
171.00000000  19.64914616  -0.26256878
171.10000000  18.81051076  -0.25178252
171.20000000  17.99605980  -0.24123645
171.30000000  17.20572917  -0.23093760
171.40000000  16.43941867  -0.22089204
171.50000000  15.69699327  -0.21110496
171.60000000  14.97828451  -0.20158069
171.70000000  14.28309195  -0.19232269
171.80000000  13.61118469  -0.18333365
171.90000000  12.96230288  -0.17461546
172.00000000  12.33615937  -0.16616928
172.10000000  11.73244127  -0.15799556
172.20000000  11.15081165  -0.15009408
172.30000000  10.59091117  -0.14246399
172.40000000  10.05235976  -0.13510384
172.50000000   9.53475832  -0.12801161
172.60000000   9.03769036  -0.12118477
172.70000000   8.56072367  -0.11462028
172.80000000   8.10341197  -0.10831467
172.90000000   7.66529656  -0.10226402
173.00000000   7.24590786  -0.09646406
173.10000000   6.84476702  -0.09091015
173.20000000   6.46138742  -0.08559735
173.30000000   6.09527616  -0.08052042
173.40000000   5.74593551  -0.07567388
173.50000000   5.41286427  -0.07105203
173.60000000   5.09555915  -0.06664898
173.70000000   4.79351600  -0.06245869
173.80000000   4.50623106  -0.05847497
173.90000000   4.23320211  -0.05469153
174.00000000   3.97392959  -0.05110201
174.10000000   3.72791761  -0.04769998
174.20000000   3.49467496  -0.04447899
174.30000000   3.27371599  -0.04143257
174.40000000   3.06456144  -0.03855425
174.50000000   2.86673927  -0.03583761
174.60000000   2.67978536  -0.03327626
174.70000000   2.50324412  -0.03086387
174.80000000   2.33666914  -0.02859419
174.90000000   2.17962370  -0.02646106
175.00000000   2.03168120  -0.02445841
175.10000000   1.89242564  -0.02258032
175.20000000   1.76145191  -0.02082095
175.30000000   1.63836614  -0.01917461
175.40000000   1.52278592  -0.01763577
175.50000000   1.41434049  -0.01619902
175.60000000   1.31267090  -0.01485911
175.70000000   1.21743012  -0.01361095
175.80000000   1.12828308  -0.01244962
175.90000000   1.04490672  -0.01137035
176.00000000   0.96698992  -0.01036855
176.10000000   0.89423348  -0.00943979
176.20000000   0.82635005  -0.00857981
176.30000000   0.76306393  -0.00778453
176.40000000   0.70411103  -0.00705002
176.50000000   0.64923861  -0.00637253
176.60000000   0.59820511  -0.00574848
176.70000000   0.55077996  -0.00517443
176.80000000   0.50674329  -0.00464713
176.90000000   0.46588574  -0.00416347
177.00000000   0.42800812  -0.00372050
177.10000000   0.39292120  -0.00331542
177.20000000   0.36044538  -0.00294558
177.30000000   0.33041038  -0.00260846
177.40000000   0.30265499  -0.00230169
177.50000000   0.27702671  -0.00202304
177.60000000   0.25338143  -0.00177039
177.70000000   0.23158319  -0.00154176
177.80000000   0.21150375  -0.00133530
177.90000000   0.19302240  -0.00114923
178.00000000   0.17602552  -0.00098194
